PE UV       SUBTECH     SPECTRUM    ASCII       PEDS        4.00        
   -1
Sample4773.Sample.asc
23/08/24
02:20:23.00
23/08/24
02:20:23.00
Analyst

350,000000
1
Lambda 850
850N4111301
PerkinElmer UV WinLab 6.4.0.971 / 1.61.00 Lambda 800

0
0
2
0
0
VIS
1
1
1
RBeamAtt,SBeamAtt,150mm sphere / downward view
0
0
0
0
Fix
 
0
0,2
0
30
0
 
 
 
0
 
0
150
0
Front
100
 
S:100 R:100
 
0
0
0
 
0
 
 
 
0
 
 
0
0
0
0
0
 
 
 
 
0
0


0
0
#HDR
-1
-1
#GR
nm
EGY
1.0
0.0
800,000000
-1,000000
451
8
0,237400
-0,000600
#DATA
800,000000	0,028000
799,000000	0,028000
798,000000	0,026300
797,000000	0,027900
796,000000	0,030200
795,000000	0,029400
794,000000	0,028600
793,000000	0,029700
792,000000	0,031400
791,000000	0,029200
790,000000	0,030600
789,000000	0,031700
788,000000	0,031700
787,000000	0,030300
786,000000	0,033400
785,000000	0,031200
784,000000	0,032100
783,000000	0,034400
782,000000	0,034300
781,000000	0,032800
780,000000	0,036100
779,000000	0,035200
778,000000	0,035900
777,000000	0,035800
776,000000	0,036900
775,000000	0,037100
774,000000	0,037600
773,000000	0,036600
772,000000	0,038100
771,000000	0,038800
770,000000	0,038100
769,000000	0,040200
768,000000	0,040300
767,000000	0,039400
766,000000	0,041700
765,000000	0,041900
764,000000	0,041100
763,000000	0,041700
762,000000	0,044900
761,000000	0,042500
760,000000	0,042900
759,000000	0,045500
758,000000	0,045900
757,000000	0,045400
756,000000	0,047400
755,000000	0,046300
754,000000	0,047200
753,000000	0,047800
752,000000	0,048500
751,000000	0,047800
750,000000	0,050200
749,000000	0,050200
748,000000	0,051400
747,000000	0,051000
746,000000	0,051700
745,000000	0,053200
744,000000	0,052800
743,000000	0,052300
742,000000	0,055900
741,000000	0,056500
740,000000	0,055800
739,000000	0,056700
738,000000	0,056200
737,000000	0,056700
736,000000	0,059200
735,000000	0,060600
734,000000	0,060500
733,000000	0,060700
732,000000	0,061600
731,000000	0,063600
730,000000	0,064000
729,000000	0,065200
728,000000	0,066900
727,000000	0,065900
726,000000	0,064900
725,000000	0,067200
724,000000	0,069400
723,000000	0,070200
722,000000	0,071200
721,000000	0,071700
720,000000	0,071000
719,000000	0,072000
718,000000	0,074800
717,000000	0,074900
716,000000	0,076100
715,000000	0,077700
714,000000	0,077800
713,000000	0,077300
712,000000	0,081000
711,000000	0,082600
710,000000	0,081800
709,000000	0,082300
708,000000	0,083000
707,000000	0,083900
706,000000	0,085900
705,000000	0,087100
704,000000	0,088000
703,000000	0,087500
702,000000	0,087800
701,000000	0,089800
700,000000	0,091200
699,000000	0,092200
698,000000	0,094000
697,000000	0,093700
696,000000	0,094000
695,000000	0,096400
694,000000	0,098300
693,000000	0,098300
692,000000	0,098200
691,000000	0,098400
690,000000	0,101900
689,000000	0,106300
688,000000	0,107300
687,000000	0,109200
686,000000	0,111700
685,000000	0,114000
684,000000	0,115200
683,000000	0,117400
682,000000	0,117900
681,000000	0,119200
680,000000	0,121800
679,000000	0,124800
678,000000	0,125400
677,000000	0,126000
676,000000	0,126200
675,000000	0,127300
674,000000	0,129900
673,000000	0,134100
672,000000	0,135000
671,000000	0,134600
670,000000	0,135800
669,000000	0,137600
668,000000	0,138200
667,000000	0,141200
666,000000	0,144000
665,000000	0,143600
664,000000	0,143600
663,000000	0,145700
662,000000	0,147400
661,000000	0,150000
660,000000	0,152100
659,000000	0,152200
658,000000	0,152300
657,000000	0,154600
656,000000	0,157800
655,000000	0,160300
654,000000	0,160800
653,000000	0,161600
652,000000	0,162000
651,000000	0,162400
650,000000	0,165600
649,000000	0,169700
648,000000	0,170900
647,000000	0,170100
646,000000	0,170500
645,000000	0,172300
644,000000	0,174500
643,000000	0,178100
642,000000	0,180100
641,000000	0,178900
640,000000	0,179700
639,000000	0,182000
638,000000	0,184300
637,000000	0,186800
636,000000	0,188900
635,000000	0,188000
634,000000	0,187700
633,000000	0,190000
632,000000	0,193900
631,000000	0,196300
630,000000	0,196400
629,000000	0,196100
628,000000	0,197300
627,000000	0,198600
626,000000	0,202000
625,000000	0,204100
624,000000	0,204700
623,000000	0,204700
622,000000	0,205800
621,000000	0,207300
620,000000	0,209900
619,000000	0,212200
618,000000	0,213400
617,000000	0,212000
616,000000	0,212300
615,000000	0,214800
614,000000	0,217700
613,000000	0,219000
612,000000	0,220300
611,000000	0,219300
610,000000	0,218400
609,000000	0,220700
608,000000	0,223500
607,000000	0,224500
606,000000	0,226400
605,000000	0,225300
604,000000	0,224700
603,000000	0,225300
602,000000	0,230000
601,000000	0,231100
600,000000	0,230700
599,000000	0,230400
598,000000	0,230100
597,000000	0,229800
596,000000	0,232300
595,000000	0,233700
594,000000	0,233900
593,000000	0,233100
592,000000	0,232300
591,000000	0,235000
590,000000	0,234100
589,000000	0,235600
588,000000	0,236200
587,000000	0,235200
586,000000	0,233500
585,000000	0,235400
584,000000	0,237100
583,000000	0,236600
582,000000	0,237400
581,000000	0,236700
580,000000	0,233700
579,000000	0,235600
578,000000	0,235300
577,000000	0,235000
576,000000	0,234300
575,000000	0,235500
574,000000	0,231700
573,000000	0,231600
572,000000	0,230700
571,000000	0,230300
570,000000	0,228600
569,000000	0,227500
568,000000	0,224200
567,000000	0,224100
566,000000	0,220200
565,000000	0,218300
564,000000	0,216200
563,000000	0,209100
562,000000	0,205200
561,000000	0,196900
560,000000	0,197800
559,000000	0,195800
558,000000	0,197100
557,000000	0,197000
556,000000	0,199000
555,000000	0,199200
554,000000	0,199200
553,000000	0,196700
552,000000	0,199300
551,000000	0,198300
550,000000	0,199200
549,000000	0,198300
548,000000	0,198900
547,000000	0,196000
546,000000	0,198200
545,000000	0,195500
544,000000	0,195900
543,000000	0,196700
542,000000	0,196000
541,000000	0,189400
540,000000	0,192000
539,000000	0,190900
538,000000	0,188700
537,000000	0,187700
536,000000	0,187900
535,000000	0,184100
534,000000	0,183200
533,000000	0,182200
532,000000	0,180100
531,000000	0,178500
530,000000	0,178000
529,000000	0,174200
528,000000	0,173300
527,000000	0,169900
526,000000	0,170200
525,000000	0,168100
524,000000	0,165000
523,000000	0,162600
522,000000	0,162500
521,000000	0,158100
520,000000	0,157300
519,000000	0,156500
518,000000	0,154000
517,000000	0,149500
516,000000	0,150700
515,000000	0,146400
514,000000	0,145100
513,000000	0,145300
512,000000	0,144200
511,000000	0,136800
510,000000	0,139500
509,000000	0,138500
508,000000	0,137700
507,000000	0,134400
506,000000	0,134100
505,000000	0,133900
504,000000	0,131000
503,000000	0,130900
502,000000	0,131400
501,000000	0,129800
500,000000	0,129600
499,000000	0,128700
498,000000	0,132100
497,000000	0,130600
496,000000	0,133300
495,000000	0,134900
494,000000	0,134200
493,000000	0,135900
492,000000	0,141700
491,000000	0,141600
490,000000	0,144500
489,000000	0,149300
488,000000	0,152400
487,000000	0,156100
486,000000	0,161000
485,000000	0,164900
484,000000	0,170700
483,000000	0,174000
482,000000	0,177800
481,000000	0,178700
480,000000	0,178400
479,000000	0,176800
478,000000	0,177000
477,000000	0,173800
476,000000	0,172500
475,000000	0,173900
474,000000	0,168800
473,000000	0,166800
472,000000	0,168500
471,000000	0,166800
470,000000	0,164200
469,000000	0,164300
468,000000	0,160700
467,000000	0,157100
466,000000	0,157000
465,000000	0,156700
464,000000	0,153400
463,000000	0,153600
462,000000	0,149700
461,000000	0,147000
460,000000	0,145900
459,000000	0,145300
458,000000	0,144500
457,000000	0,143800
456,000000	0,138900
455,000000	0,138000
454,000000	0,138500
453,000000	0,136500
452,000000	0,134800
451,000000	0,134700
450,000000	0,131300
449,000000	0,128200
448,000000	0,130700
447,000000	0,129400
446,000000	0,127800
445,000000	0,129500
444,000000	0,127100
443,000000	0,125600
442,000000	0,128800
441,000000	0,129100
440,000000	0,127600
439,000000	0,127900
438,000000	0,125000
437,000000	0,124000
436,000000	0,125100
435,000000	0,123300
434,000000	0,123300
433,000000	0,122000
432,000000	0,119100
431,000000	0,117700
430,000000	0,119100
429,000000	0,118000
428,000000	0,118000
427,000000	0,116400
426,000000	0,113300
425,000000	0,111700
424,000000	0,114200
423,000000	0,112000
422,000000	0,110300
421,000000	0,109000
420,000000	0,106100
419,000000	0,103900
418,000000	0,105500
417,000000	0,104600
416,000000	0,102600
415,000000	0,099500
414,000000	0,097500
413,000000	0,095300
412,000000	0,097000
411,000000	0,096200
410,000000	0,094100
409,000000	0,090400
408,000000	0,088000
407,000000	0,087600
406,000000	0,086700
405,000000	0,084600
404,000000	0,084000
403,000000	0,080800
402,000000	0,077600
401,000000	0,076000
400,000000	0,076000
399,000000	0,073600
398,000000	0,071100
397,000000	0,068900
396,000000	0,066200
395,000000	0,065900
394,000000	0,066300
393,000000	0,063800
392,000000	0,060700
391,000000	0,059700
390,000000	0,058000
389,000000	0,054800
388,000000	0,055400
387,000000	0,055300
386,000000	0,052700
385,000000	0,050600
384,000000	0,048200
383,000000	0,047400
382,000000	0,047800
381,000000	0,045900
380,000000	0,044100
379,000000	0,041800
378,000000	0,024000
377,000000	-0,000100
376,000000	0,000900
375,000000	0,001300
374,000000	0,000400
373,000000	0,002100
372,000000	0,004900
371,000000	0,003700
370,000000	0,003300
369,000000	0,004000
368,000000	0,002700
367,000000	0,003600
366,000000	0,005800
365,000000	0,005800
364,000000	0,005900
363,000000	0,005400
362,000000	0,003500
361,000000	0,003100
360,000000	0,004500
359,000000	0,003800
358,000000	0,002500
357,000000	0,002000
356,000000	0,001200
355,000000	0,002300
354,000000	0,003600
353,000000	0,002600
352,000000	0,001900
351,000000	0,000900
350,000000	-0,000600
