PE UV       SUBTECH     SPECTRUM    ASCII       PEDS        4.00        
   -1
Sample4777.Sample.asc
23/08/24
02:45:29.00
23/08/24
02:45:29.00
Analyst

350,000000
1
Lambda 850
850N4111301
PerkinElmer UV WinLab 6.4.0.971 / 1.61.00 Lambda 800

0
0
2
0
0
VIS
1
1
1
RBeamAtt,SBeamAtt,150mm sphere / downward view
0
0
0
0
Fix
 
0
0,2
0
30
0
 
 
 
0
 
0
150
0
Front
100
 
S:100 R:100
 
0
0
0
 
0
 
 
 
0
 
 
0
0
0
0
0
 
 
 
 
0
0


0
0
#HDR
-1
-1
#GR
nm
EGY
1.0
0.0
800,000000
-1,000000
451
8
0,196800
-0,003100
#DATA
800,000000	0,028200
799,000000	0,027900
798,000000	0,029600
797,000000	0,029300
796,000000	0,029400
795,000000	0,031700
794,000000	0,031600
793,000000	0,030200
792,000000	0,030800
791,000000	0,033300
790,000000	0,032400
789,000000	0,031700
788,000000	0,033800
787,000000	0,033700
786,000000	0,034500
785,000000	0,032600
784,000000	0,034800
783,000000	0,033900
782,000000	0,035400
781,000000	0,036100
780,000000	0,036500
779,000000	0,035500
778,000000	0,038100
777,000000	0,038500
776,000000	0,037600
775,000000	0,037500
774,000000	0,040900
773,000000	0,038600
772,000000	0,039000
771,000000	0,040900
770,000000	0,041400
769,000000	0,040300
768,000000	0,042200
767,000000	0,041600
766,000000	0,042300
765,000000	0,043100
764,000000	0,043700
763,000000	0,043100
762,000000	0,043900
761,000000	0,043800
760,000000	0,045900
759,000000	0,045700
758,000000	0,046600
757,000000	0,048100
756,000000	0,048100
755,000000	0,046200
754,000000	0,049700
753,000000	0,049300
752,000000	0,049300
751,000000	0,049700
750,000000	0,050200
749,000000	0,050400
748,000000	0,051200
747,000000	0,052500
746,000000	0,052800
745,000000	0,052600
744,000000	0,053100
743,000000	0,054900
742,000000	0,055600
741,000000	0,056400
740,000000	0,058300
739,000000	0,057300
738,000000	0,056100
737,000000	0,057900
736,000000	0,059900
735,000000	0,060500
734,000000	0,061000
733,000000	0,062000
732,000000	0,062500
731,000000	0,062800
730,000000	0,065600
729,000000	0,065400
728,000000	0,066200
727,000000	0,067900
726,000000	0,067600
725,000000	0,066800
724,000000	0,070800
723,000000	0,072400
722,000000	0,072200
721,000000	0,072300
720,000000	0,072800
719,000000	0,072600
718,000000	0,074500
717,000000	0,075800
716,000000	0,077000
715,000000	0,076500
714,000000	0,076600
713,000000	0,078400
712,000000	0,079100
711,000000	0,079200
710,000000	0,080600
709,000000	0,079900
708,000000	0,077900
707,000000	0,078500
706,000000	0,080100
705,000000	0,079100
704,000000	0,078800
703,000000	0,078800
702,000000	0,077600
701,000000	0,076500
700,000000	0,076300
699,000000	0,075500
698,000000	0,073100
697,000000	0,071200
696,000000	0,068900
695,000000	0,066000
694,000000	0,065600
693,000000	0,063500
692,000000	0,060000
691,000000	0,055900
690,000000	0,053500
689,000000	0,052000
688,000000	0,049600
687,000000	0,046900
686,000000	0,045300
685,000000	0,045600
684,000000	0,043900
683,000000	0,041700
682,000000	0,041400
681,000000	0,041900
680,000000	0,041500
679,000000	0,043700
678,000000	0,045300
677,000000	0,045000
676,000000	0,044100
675,000000	0,044500
674,000000	0,045600
673,000000	0,048300
672,000000	0,049600
671,000000	0,049200
670,000000	0,049600
669,000000	0,052000
668,000000	0,055200
667,000000	0,058700
666,000000	0,060600
665,000000	0,062400
664,000000	0,064200
663,000000	0,066900
662,000000	0,070500
661,000000	0,075500
660,000000	0,078700
659,000000	0,079800
658,000000	0,081300
657,000000	0,084300
656,000000	0,086500
655,000000	0,090100
654,000000	0,091500
653,000000	0,090300
652,000000	0,092400
651,000000	0,095500
650,000000	0,097100
649,000000	0,100600
648,000000	0,104700
647,000000	0,105800
646,000000	0,106800
645,000000	0,110400
644,000000	0,115200
643,000000	0,119700
642,000000	0,121700
641,000000	0,122600
640,000000	0,125300
639,000000	0,127200
638,000000	0,130500
637,000000	0,134200
636,000000	0,134900
635,000000	0,135000
634,000000	0,135500
633,000000	0,135300
632,000000	0,137500
631,000000	0,141200
630,000000	0,141900
629,000000	0,139700
628,000000	0,140100
627,000000	0,143300
626,000000	0,145700
625,000000	0,146800
624,000000	0,147900
623,000000	0,146700
622,000000	0,146700
621,000000	0,149700
620,000000	0,152300
619,000000	0,153500
618,000000	0,155700
617,000000	0,156100
616,000000	0,155800
615,000000	0,157400
614,000000	0,161800
613,000000	0,163900
612,000000	0,164200
611,000000	0,163700
610,000000	0,166100
609,000000	0,166900
608,000000	0,169200
607,000000	0,172000
606,000000	0,172900
605,000000	0,172000
604,000000	0,173000
603,000000	0,174800
602,000000	0,178200
601,000000	0,179900
600,000000	0,180900
599,000000	0,180300
598,000000	0,179700
597,000000	0,181100
596,000000	0,184000
595,000000	0,184100
594,000000	0,185500
593,000000	0,184400
592,000000	0,184400
591,000000	0,184700
590,000000	0,187000
589,000000	0,188500
588,000000	0,188700
587,000000	0,188900
586,000000	0,187700
585,000000	0,189900
584,000000	0,191800
583,000000	0,194200
582,000000	0,193600
581,000000	0,194000
580,000000	0,193400
579,000000	0,194400
578,000000	0,194100
577,000000	0,195900
576,000000	0,195900
575,000000	0,195100
574,000000	0,192200
573,000000	0,195400
572,000000	0,195900
571,000000	0,195500
570,000000	0,196800
569,000000	0,196400
568,000000	0,191200
567,000000	0,192900
566,000000	0,192000
565,000000	0,189700
564,000000	0,188200
563,000000	0,187300
562,000000	0,180700
561,000000	0,172900
560,000000	0,173500
559,000000	0,173000
558,000000	0,175500
557,000000	0,174200
556,000000	0,174700
555,000000	0,177200
554,000000	0,177800
553,000000	0,173300
552,000000	0,176500
551,000000	0,176000
550,000000	0,175300
549,000000	0,174900
548,000000	0,176700
547,000000	0,172700
546,000000	0,172800
545,000000	0,172400
544,000000	0,172100
543,000000	0,170600
542,000000	0,171400
541,000000	0,166900
540,000000	0,167000
539,000000	0,165400
538,000000	0,165800
537,000000	0,164300
536,000000	0,161600
535,000000	0,156900
534,000000	0,159300
533,000000	0,155000
532,000000	0,154200
531,000000	0,152600
530,000000	0,149800
529,000000	0,143900
528,000000	0,145700
527,000000	0,140900
526,000000	0,138400
525,000000	0,137200
524,000000	0,135400
523,000000	0,126200
522,000000	0,127100
521,000000	0,124000
520,000000	0,120300
519,000000	0,115300
518,000000	0,114300
517,000000	0,106900
516,000000	0,106200
515,000000	0,100500
514,000000	0,098700
513,000000	0,095400
512,000000	0,092000
511,000000	0,087600
510,000000	0,086000
509,000000	0,080300
508,000000	0,078100
507,000000	0,076200
506,000000	0,071600
505,000000	0,067600
504,000000	0,069300
503,000000	0,063700
502,000000	0,061200
501,000000	0,061100
500,000000	0,059500
499,000000	0,058000
498,000000	0,055600
497,000000	0,054100
496,000000	0,053600
495,000000	0,051700
494,000000	0,051800
493,000000	0,050300
492,000000	0,050800
491,000000	0,051100
490,000000	0,052400
489,000000	0,051400
488,000000	0,051900
487,000000	0,053700
486,000000	0,054800
485,000000	0,054600
484,000000	0,058800
483,000000	0,058900
482,000000	0,059200
481,000000	0,059300
480,000000	0,058100
479,000000	0,058400
478,000000	0,057300
477,000000	0,058300
476,000000	0,055900
475,000000	0,055300
474,000000	0,057000
473,000000	0,055800
472,000000	0,054300
471,000000	0,055100
470,000000	0,055200
469,000000	0,055900
468,000000	0,051000
467,000000	0,050000
466,000000	0,052200
465,000000	0,049800
464,000000	0,050000
463,000000	0,050500
462,000000	0,047500
461,000000	0,046500
460,000000	0,047400
459,000000	0,046100
458,000000	0,045100
457,000000	0,046700
456,000000	0,042900
455,000000	0,039200
454,000000	0,042000
453,000000	0,042000
452,000000	0,039400
451,000000	0,038500
450,000000	0,035700
449,000000	0,034200
448,000000	0,033800
447,000000	0,033100
446,000000	0,032400
445,000000	0,031200
444,000000	0,028100
443,000000	0,027100
442,000000	0,029100
441,000000	0,028800
440,000000	0,029100
439,000000	0,029100
438,000000	0,025300
437,000000	0,024300
436,000000	0,028000
435,000000	0,027400
434,000000	0,026200
433,000000	0,028000
432,000000	0,026000
431,000000	0,023600
430,000000	0,026100
429,000000	0,027100
428,000000	0,026900
427,000000	0,027400
426,000000	0,025700
425,000000	0,024100
424,000000	0,026600
423,000000	0,027500
422,000000	0,027500
421,000000	0,027100
420,000000	0,026000
419,000000	0,027300
418,000000	0,026100
417,000000	0,025600
416,000000	0,026700
415,000000	0,026100
414,000000	0,024600
413,000000	0,025300
412,000000	0,025900
411,000000	0,025300
410,000000	0,024100
409,000000	0,023800
408,000000	0,022900
407,000000	0,024200
406,000000	0,026000
405,000000	0,025300
404,000000	0,023700
403,000000	0,023500
402,000000	0,022900
401,000000	0,022400
400,000000	0,023300
399,000000	0,023900
398,000000	0,022400
397,000000	0,020600
396,000000	0,019000
395,000000	0,019200
394,000000	0,020100
393,000000	0,020000
392,000000	0,019200
391,000000	0,017300
390,000000	0,016200
389,000000	0,018000
388,000000	0,018500
387,000000	0,016700
386,000000	0,016300
385,000000	0,015100
384,000000	0,013300
383,000000	0,014300
382,000000	0,015900
381,000000	0,014900
380,000000	0,013200
379,000000	0,012100
378,000000	0,006200
377,000000	-0,001800
376,000000	-0,003100
375,000000	-0,002800
374,000000	-0,000200
373,000000	0,001300
372,000000	0,000300
371,000000	-0,000500
370,000000	-0,001300
369,000000	-0,002100
368,000000	-0,000800
367,000000	0,001800
366,000000	0,001500
365,000000	-0,000100
364,000000	-0,000700
363,000000	-0,001200
362,000000	-0,000900
361,000000	0,002000
360,000000	0,001900
359,000000	-0,000100
358,000000	0,000200
357,000000	-0,000000
356,000000	-0,002400
355,000000	-0,001400
354,000000	0,001200
353,000000	-0,000700
352,000000	-0,002800
351,000000	-0,002600
350,000000	-0,001000
