PE UV       SUBTECH     SPECTRUM    ASCII       PEDS        4.00        
   -1
Sample4798.Sample.asc
23/08/31
23:06:15.00
23/08/31
23:06:15.00
Analyst

350,000000
1
Lambda 850
850N4111301
PerkinElmer UV WinLab 6.4.0.971 / 1.61.00 Lambda 800

0
0
2
0
0
VIS
1
1
1
RBeamAtt,SBeamAtt,150mm sphere / downward view
0
0
0
0
Fix
 
0
0,2
0
30
0
 
 
 
0
 
0
150
0
Front
100
 
S:100 R:100
 
0
0
0
 
0
 
 
 
0
 
 
0
0
0
0
0
 
 
 
 
0
0


0
0
#HDR
-1
-1
#GR
nm
EGY
1.0
0.0
850,000000
-1,000000
501
8
0,388000
-0,000400
#DATA
850,000000	0,003700
849,000000	0,005500
848,000000	0,005600
847,000000	0,006800
846,000000	0,005300
845,000000	0,007700
844,000000	0,008800
843,000000	0,010100
842,000000	0,011700
841,000000	0,012500
840,000000	0,012300
839,000000	0,015000
838,000000	0,017500
837,000000	0,017400
836,000000	0,017900
835,000000	0,021600
834,000000	0,021200
833,000000	0,022800
832,000000	0,025800
831,000000	0,026900
830,000000	0,026700
829,000000	0,027800
828,000000	0,030900
827,000000	0,032700
826,000000	0,033300
825,000000	0,034500
824,000000	0,036000
823,000000	0,036800
822,000000	0,038300
821,000000	0,041100
820,000000	0,040000
819,000000	0,040000
818,000000	0,042400
817,000000	0,044400
816,000000	0,042600
815,000000	0,043500
814,000000	0,045300
813,000000	0,045500
812,000000	0,044600
811,000000	0,047200
810,000000	0,046300
809,000000	0,053000
808,000000	0,052900
807,000000	0,054500
806,000000	0,055300
805,000000	0,055800
804,000000	0,056400
803,000000	0,058500
802,000000	0,058000
801,000000	0,059800
800,000000	0,059800
799,000000	0,061500
798,000000	0,060400
797,000000	0,062100
796,000000	0,063300
795,000000	0,063300
794,000000	0,062100
793,000000	0,065100
792,000000	0,066500
791,000000	0,065900
790,000000	0,067000
789,000000	0,068400
788,000000	0,067100
787,000000	0,068900
786,000000	0,071100
785,000000	0,070800
784,000000	0,071200
783,000000	0,072300
782,000000	0,072900
781,000000	0,074000
780,000000	0,075500
779,000000	0,076900
778,000000	0,076100
777,000000	0,075300
776,000000	0,077400
775,000000	0,079400
774,000000	0,079800
773,000000	0,080900
772,000000	0,081200
771,000000	0,080600
770,000000	0,081100
769,000000	0,083700
768,000000	0,084800
767,000000	0,085900
766,000000	0,087100
765,000000	0,087500
764,000000	0,086900
763,000000	0,089300
762,000000	0,090100
761,000000	0,089700
760,000000	0,090500
759,000000	0,093100
758,000000	0,094600
757,000000	0,096200
756,000000	0,096900
755,000000	0,096700
754,000000	0,096800
753,000000	0,097500
752,000000	0,099600
751,000000	0,101000
750,000000	0,102200
749,000000	0,103900
748,000000	0,104600
747,000000	0,104300
746,000000	0,105900
745,000000	0,108900
744,000000	0,109400
743,000000	0,110200
742,000000	0,111200
741,000000	0,111700
740,000000	0,112700
739,000000	0,116100
738,000000	0,117400
737,000000	0,117700
736,000000	0,118800
735,000000	0,120600
734,000000	0,122200
733,000000	0,124700
732,000000	0,127500
731,000000	0,128100
730,000000	0,128400
729,000000	0,130800
728,000000	0,132700
727,000000	0,133800
726,000000	0,135300
725,000000	0,136500
724,000000	0,137500
723,000000	0,139200
722,000000	0,141900
721,000000	0,144900
720,000000	0,144900
719,000000	0,146900
718,000000	0,149100
717,000000	0,148800
716,000000	0,151300
715,000000	0,155700
714,000000	0,156300
713,000000	0,155500
712,000000	0,157100
711,000000	0,158300
710,000000	0,158300
709,000000	0,161300
708,000000	0,162800
707,000000	0,161000
706,000000	0,160300
705,000000	0,161700
704,000000	0,162300
703,000000	0,162200
702,000000	0,162800
701,000000	0,161000
700,000000	0,158300
699,000000	0,157800
698,000000	0,157400
697,000000	0,156100
696,000000	0,153900
695,000000	0,149900
694,000000	0,144700
693,000000	0,139200
692,000000	0,136700
691,000000	0,135000
690,000000	0,128900
689,000000	0,126600
688,000000	0,123500
687,000000	0,119400
686,000000	0,115100
685,000000	0,111400
684,000000	0,111500
683,000000	0,111500
682,000000	0,109500
681,000000	0,108900
680,000000	0,110100
679,000000	0,112700
678,000000	0,115200
677,000000	0,116800
676,000000	0,116000
675,000000	0,116500
674,000000	0,118900
673,000000	0,124000
672,000000	0,127500
671,000000	0,129800
670,000000	0,132800
669,000000	0,136000
668,000000	0,139800
667,000000	0,146900
666,000000	0,154300
665,000000	0,160800
664,000000	0,164800
663,000000	0,170400
662,000000	0,177300
661,000000	0,185000
660,000000	0,192600
659,000000	0,198200
658,000000	0,199900
657,000000	0,203600
656,000000	0,209900
655,000000	0,214500
654,000000	0,218300
653,000000	0,222100
652,000000	0,222300
651,000000	0,223100
650,000000	0,228300
649,000000	0,235200
648,000000	0,240800
647,000000	0,245700
646,000000	0,249100
645,000000	0,252600
644,000000	0,258100
643,000000	0,264800
642,000000	0,270000
641,000000	0,273900
640,000000	0,277500
639,000000	0,280400
638,000000	0,284500
637,000000	0,288400
636,000000	0,292500
635,000000	0,295300
634,000000	0,294400
633,000000	0,296300
632,000000	0,298500
631,000000	0,301100
630,000000	0,303100
629,000000	0,306300
628,000000	0,306400
627,000000	0,306500
626,000000	0,310400
625,000000	0,314100
624,000000	0,315600
623,000000	0,318200
622,000000	0,319900
621,000000	0,320000
620,000000	0,323600
619,000000	0,328300
618,000000	0,330600
617,000000	0,332300
616,000000	0,335800
615,000000	0,337300
614,000000	0,340800
613,000000	0,343800
612,000000	0,346400
611,000000	0,348700
610,000000	0,350500
609,000000	0,352500
608,000000	0,357600
607,000000	0,357100
606,000000	0,361800
605,000000	0,365300
604,000000	0,365500
603,000000	0,363000
602,000000	0,368900
601,000000	0,371000
600,000000	0,370700
599,000000	0,372400
598,000000	0,374900
597,000000	0,372900
596,000000	0,375900
595,000000	0,376500
594,000000	0,377700
593,000000	0,378200
592,000000	0,380400
591,000000	0,377800
590,000000	0,380400
589,000000	0,382300
588,000000	0,384400
587,000000	0,383900
586,000000	0,385100
585,000000	0,383600
584,000000	0,385500
583,000000	0,384000
582,000000	0,386800
581,000000	0,388000
580,000000	0,386800
579,000000	0,382900
578,000000	0,387300
577,000000	0,385000
576,000000	0,385700
575,000000	0,386900
574,000000	0,382300
573,000000	0,381600
572,000000	0,383000
571,000000	0,381900
570,000000	0,379900
569,000000	0,378000
568,000000	0,378500
567,000000	0,371000
566,000000	0,368300
565,000000	0,364400
564,000000	0,360700
563,000000	0,354000
562,000000	0,349400
561,000000	0,327400
560,000000	0,331000
559,000000	0,326500
558,000000	0,330600
557,000000	0,330100
556,000000	0,331700
555,000000	0,332100
554,000000	0,333000
553,000000	0,329600
552,000000	0,333400
551,000000	0,329300
550,000000	0,331100
549,000000	0,329700
548,000000	0,327900
547,000000	0,328400
546,000000	0,325800
545,000000	0,324000
544,000000	0,322400
543,000000	0,322600
542,000000	0,319500
541,000000	0,316500
540,000000	0,313300
539,000000	0,313200
538,000000	0,309000
537,000000	0,306400
536,000000	0,304400
535,000000	0,301300
534,000000	0,294100
533,000000	0,295800
532,000000	0,289800
531,000000	0,287500
530,000000	0,286000
529,000000	0,281100
528,000000	0,272900
527,000000	0,272600
526,000000	0,267300
525,000000	0,263000
524,000000	0,257100
523,000000	0,253600
522,000000	0,246500
521,000000	0,243300
520,000000	0,236300
519,000000	0,233000
518,000000	0,226900
517,000000	0,220100
516,000000	0,215600
515,000000	0,210200
514,000000	0,203300
513,000000	0,199800
512,000000	0,193800
511,000000	0,187100
510,000000	0,183600
509,000000	0,177600
508,000000	0,171800
507,000000	0,167100
506,000000	0,163300
505,000000	0,158000
504,000000	0,153000
503,000000	0,150200
502,000000	0,146100
501,000000	0,143200
500,000000	0,139700
499,000000	0,137200
498,000000	0,135500
497,000000	0,131000
496,000000	0,130000
495,000000	0,130600
494,000000	0,129300
493,000000	0,129000
492,000000	0,131400
491,000000	0,127600
490,000000	0,126200
489,000000	0,132600
488,000000	0,134200
487,000000	0,134200
486,000000	0,137100
485,000000	0,137800
484,000000	0,139800
483,000000	0,144100
482,000000	0,145300
481,000000	0,144200
480,000000	0,140900
479,000000	0,143000
478,000000	0,140300
477,000000	0,137500
476,000000	0,137100
475,000000	0,137500
474,000000	0,136100
473,000000	0,130900
472,000000	0,129600
471,000000	0,130300
470,000000	0,128300
469,000000	0,127100
468,000000	0,125800
467,000000	0,121100
466,000000	0,119200
465,000000	0,119800
464,000000	0,117900
463,000000	0,116000
462,000000	0,113400
461,000000	0,109800
460,000000	0,107300
459,000000	0,108500
458,000000	0,107700
457,000000	0,104000
456,000000	0,101800
455,000000	0,098700
454,000000	0,095600
453,000000	0,095400
452,000000	0,093500
451,000000	0,090400
450,000000	0,086800
449,000000	0,081900
448,000000	0,079700
447,000000	0,079200
446,000000	0,076800
445,000000	0,074800
444,000000	0,072900
443,000000	0,069100
442,000000	0,068300
441,000000	0,070100
440,000000	0,067600
439,000000	0,066300
438,000000	0,066700
437,000000	0,064100
436,000000	0,063400
435,000000	0,065700
434,000000	0,065700
433,000000	0,064600
432,000000	0,063300
431,000000	0,063000
430,000000	0,062800
429,000000	0,065200
428,000000	0,067300
427,000000	0,065300
426,000000	0,064000
425,000000	0,066900
424,000000	0,066700
423,000000	0,065900
422,000000	0,065500
421,000000	0,065500
420,000000	0,064900
419,000000	0,064000
418,000000	0,064200
417,000000	0,065000
416,000000	0,064600
415,000000	0,064000
414,000000	0,064200
413,000000	0,062100
412,000000	0,062500
411,000000	0,064400
410,000000	0,062700
409,000000	0,062700
408,000000	0,063500
407,000000	0,061800
406,000000	0,060700
405,000000	0,062600
404,000000	0,063000
403,000000	0,061700
402,000000	0,058900
401,000000	0,057700
400,000000	0,059500
399,000000	0,059500
398,000000	0,057800
397,000000	0,056000
396,000000	0,053800
395,000000	0,052900
394,000000	0,053700
393,000000	0,053100
392,000000	0,051400
391,000000	0,049900
390,000000	0,048400
389,000000	0,045900
388,000000	0,045700
387,000000	0,046900
386,000000	0,045100
385,000000	0,043900
384,000000	0,043200
383,000000	0,039600
382,000000	0,038600
381,000000	0,040400
380,000000	0,038700
379,000000	0,036200
378,000000	0,015400
377,000000	-0,000400
376,000000	-0,000100
375,000000	0,000700
374,000000	0,002900
373,000000	0,004600
372,000000	0,003900
371,000000	0,002700
370,000000	0,003600
369,000000	0,003900
368,000000	0,001900
367,000000	0,003700
366,000000	0,006800
365,000000	0,004700
364,000000	0,002100
363,000000	0,002900
362,000000	0,003800
361,000000	0,004300
360,000000	0,004500
359,000000	0,003600
358,000000	0,003200
357,000000	0,001100
356,000000	0,001700
355,000000	0,003700
354,000000	0,004200
353,000000	0,001600
352,000000	0,001600
351,000000	0,000500
350,000000	0,000600
