PE UV       SUBTECH     SPECTRUM    ASCII       PEDS        4.00        
   -1
Sample4776.Sample.asc
23/08/24
02:42:35.00
23/08/24
02:42:35.00
Analyst

350,000000
1
Lambda 850
850N4111301
PerkinElmer UV WinLab 6.4.0.971 / 1.61.00 Lambda 800

0
0
2
0
0
VIS
1
1
1
RBeamAtt,SBeamAtt,150mm sphere / downward view
0
0
0
0
Fix
 
0
0,2
0
30
0
 
 
 
0
 
0
150
0
Front
100
 
S:100 R:100
 
0
0
0
 
0
 
 
 
0
 
 
0
0
0
0
0
 
 
 
 
0
0


0
0
#HDR
-1
-1
#GR
nm
EGY
1.0
0.0
800,000000
-1,000000
451
8
0,355700
0,000900
#DATA
800,000000	0,049400
799,000000	0,049600
798,000000	0,051500
797,000000	0,051800
796,000000	0,051500
795,000000	0,053300
794,000000	0,054200
793,000000	0,052200
792,000000	0,054200
791,000000	0,056500
790,000000	0,055500
789,000000	0,055600
788,000000	0,057900
787,000000	0,057400
786,000000	0,059100
785,000000	0,058300
784,000000	0,059600
783,000000	0,060300
782,000000	0,060000
781,000000	0,061000
780,000000	0,062600
779,000000	0,060600
778,000000	0,064900
777,000000	0,065400
776,000000	0,064900
775,000000	0,065400
774,000000	0,068100
773,000000	0,066300
772,000000	0,067400
771,000000	0,069300
770,000000	0,069800
769,000000	0,069800
768,000000	0,071500
767,000000	0,071200
766,000000	0,073000
765,000000	0,072800
764,000000	0,073900
763,000000	0,074200
762,000000	0,075400
761,000000	0,075900
760,000000	0,077800
759,000000	0,077700
758,000000	0,079600
757,000000	0,080400
756,000000	0,080100
755,000000	0,081000
754,000000	0,084000
753,000000	0,084800
752,000000	0,084000
751,000000	0,085000
750,000000	0,086600
749,000000	0,085900
748,000000	0,087500
747,000000	0,090100
746,000000	0,090400
745,000000	0,090600
744,000000	0,093500
743,000000	0,093000
742,000000	0,093800
741,000000	0,095700
740,000000	0,097700
739,000000	0,097700
738,000000	0,098500
737,000000	0,099500
736,000000	0,101400
735,000000	0,102000
734,000000	0,104200
733,000000	0,104900
732,000000	0,105100
731,000000	0,106900
730,000000	0,109700
729,000000	0,110500
728,000000	0,112000
727,000000	0,114100
726,000000	0,114800
725,000000	0,115300
724,000000	0,118200
723,000000	0,120600
722,000000	0,120600
721,000000	0,120100
720,000000	0,122200
719,000000	0,123300
718,000000	0,126000
717,000000	0,128200
716,000000	0,129300
715,000000	0,129800
714,000000	0,130900
713,000000	0,133300
712,000000	0,135200
711,000000	0,137000
710,000000	0,137800
709,000000	0,137500
708,000000	0,136500
707,000000	0,138100
706,000000	0,141500
705,000000	0,140400
704,000000	0,140400
703,000000	0,140800
702,000000	0,139800
701,000000	0,139500
700,000000	0,141500
699,000000	0,141300
698,000000	0,139700
697,000000	0,137800
696,000000	0,136100
695,000000	0,134700
694,000000	0,135100
693,000000	0,133400
692,000000	0,129300
691,000000	0,124200
690,000000	0,123900
689,000000	0,125600
688,000000	0,122900
687,000000	0,119500
686,000000	0,117900
685,000000	0,119100
684,000000	0,117500
683,000000	0,115800
682,000000	0,115800
681,000000	0,117100
680,000000	0,117600
679,000000	0,120700
678,000000	0,123500
677,000000	0,124300
676,000000	0,123800
675,000000	0,125900
674,000000	0,127800
673,000000	0,130500
672,000000	0,133100
671,000000	0,133900
670,000000	0,135200
669,000000	0,139700
668,000000	0,145000
667,000000	0,150300
666,000000	0,153300
665,000000	0,157000
664,000000	0,161700
663,000000	0,166200
662,000000	0,171600
661,000000	0,178800
660,000000	0,183200
659,000000	0,185300
658,000000	0,188500
657,000000	0,192500
656,000000	0,196100
655,000000	0,200700
654,000000	0,203200
653,000000	0,203500
652,000000	0,205500
651,000000	0,209700
650,000000	0,213600
649,000000	0,217800
648,000000	0,222300
647,000000	0,224600
646,000000	0,226800
645,000000	0,231800
644,000000	0,238300
643,000000	0,243400
642,000000	0,247200
641,000000	0,249300
640,000000	0,251600
639,000000	0,254500
638,000000	0,259000
637,000000	0,263900
636,000000	0,266300
635,000000	0,266700
634,000000	0,268600
633,000000	0,270200
632,000000	0,273400
631,000000	0,277800
630,000000	0,279400
629,000000	0,277700
628,000000	0,278600
627,000000	0,282100
626,000000	0,285500
625,000000	0,287800
624,000000	0,289800
623,000000	0,290300
622,000000	0,290300
621,000000	0,294400
620,000000	0,298300
619,000000	0,300100
618,000000	0,302900
617,000000	0,304400
616,000000	0,304800
615,000000	0,308000
614,000000	0,313100
613,000000	0,315300
612,000000	0,316000
611,000000	0,317000
610,000000	0,318300
609,000000	0,320800
608,000000	0,324600
607,000000	0,327600
606,000000	0,329400
605,000000	0,328700
604,000000	0,330100
603,000000	0,333100
602,000000	0,335500
601,000000	0,338600
600,000000	0,340100
599,000000	0,339000
598,000000	0,338700
597,000000	0,341000
596,000000	0,343100
595,000000	0,344100
594,000000	0,345300
593,000000	0,345300
592,000000	0,345300
591,000000	0,345800
590,000000	0,349100
589,000000	0,350200
588,000000	0,350200
587,000000	0,350800
586,000000	0,349200
585,000000	0,351900
584,000000	0,354000
583,000000	0,354500
582,000000	0,353900
581,000000	0,354400
580,000000	0,353300
579,000000	0,353600
578,000000	0,353600
577,000000	0,354900
576,000000	0,355700
575,000000	0,354200
574,000000	0,352000
573,000000	0,354400
572,000000	0,352500
571,000000	0,350500
570,000000	0,350100
569,000000	0,347900
568,000000	0,343300
567,000000	0,343700
566,000000	0,340500
565,000000	0,336200
564,000000	0,332500
563,000000	0,329800
562,000000	0,320600
561,000000	0,306800
560,000000	0,305600
559,000000	0,304600
558,000000	0,309000
557,000000	0,307100
556,000000	0,308200
555,000000	0,310500
554,000000	0,310900
553,000000	0,306900
552,000000	0,309900
551,000000	0,308100
550,000000	0,308700
549,000000	0,308000
548,000000	0,309200
547,000000	0,305000
546,000000	0,306500
545,000000	0,304100
544,000000	0,302500
543,000000	0,300500
542,000000	0,301600
541,000000	0,295900
540,000000	0,296000
539,000000	0,293500
538,000000	0,292700
537,000000	0,289400
536,000000	0,286900
535,000000	0,282800
534,000000	0,283200
533,000000	0,277500
532,000000	0,274700
531,000000	0,272700
530,000000	0,269200
529,000000	0,261100
528,000000	0,262500
527,000000	0,256300
526,000000	0,252400
525,000000	0,250100
524,000000	0,246900
523,000000	0,238000
522,000000	0,237800
521,000000	0,231900
520,000000	0,227200
519,000000	0,221900
518,000000	0,217900
517,000000	0,210600
516,000000	0,209500
515,000000	0,201900
514,000000	0,198400
513,000000	0,193200
512,000000	0,188200
511,000000	0,182000
510,000000	0,179700
509,000000	0,173300
508,000000	0,171100
507,000000	0,167800
506,000000	0,161700
505,000000	0,158800
504,000000	0,155700
503,000000	0,152100
502,000000	0,148100
501,000000	0,146600
500,000000	0,143100
499,000000	0,138900
498,000000	0,139300
497,000000	0,137400
496,000000	0,136600
495,000000	0,136100
494,000000	0,136300
493,000000	0,134800
492,000000	0,137100
491,000000	0,137700
490,000000	0,139800
489,000000	0,139700
488,000000	0,141900
487,000000	0,146900
486,000000	0,149100
485,000000	0,150700
484,000000	0,157800
483,000000	0,161100
482,000000	0,161900
481,000000	0,164600
480,000000	0,162500
479,000000	0,160700
478,000000	0,159300
477,000000	0,159100
476,000000	0,156700
475,000000	0,157500
474,000000	0,154800
473,000000	0,152600
472,000000	0,151500
471,000000	0,151400
470,000000	0,150800
469,000000	0,150500
468,000000	0,145000
467,000000	0,144200
466,000000	0,144000
465,000000	0,141700
464,000000	0,138900
463,000000	0,138500
462,000000	0,133900
461,000000	0,130200
460,000000	0,132200
459,000000	0,129400
458,000000	0,127100
457,000000	0,127400
456,000000	0,122200
455,000000	0,117200
454,000000	0,118400
453,000000	0,117600
452,000000	0,112900
451,000000	0,110700
450,000000	0,107300
449,000000	0,102700
448,000000	0,101800
447,000000	0,100100
446,000000	0,097400
445,000000	0,094500
444,000000	0,091600
443,000000	0,090800
442,000000	0,091500
441,000000	0,090400
440,000000	0,090600
439,000000	0,089900
438,000000	0,086000
437,000000	0,085100
436,000000	0,087600
435,000000	0,086900
434,000000	0,085500
433,000000	0,084400
432,000000	0,086100
431,000000	0,084400
430,000000	0,085000
429,000000	0,085600
428,000000	0,085200
427,000000	0,085600
426,000000	0,084300
425,000000	0,082100
424,000000	0,083500
423,000000	0,084000
422,000000	0,083600
421,000000	0,080800
420,000000	0,080300
419,000000	0,079900
418,000000	0,080700
417,000000	0,079600
416,000000	0,079600
415,000000	0,077800
414,000000	0,075200
413,000000	0,075500
412,000000	0,077500
411,000000	0,076200
410,000000	0,075700
409,000000	0,075800
408,000000	0,073000
407,000000	0,071600
406,000000	0,074300
405,000000	0,072900
404,000000	0,071300
403,000000	0,071100
402,000000	0,069500
401,000000	0,068500
400,000000	0,067100
399,000000	0,067000
398,000000	0,064700
397,000000	0,061300
396,000000	0,059800
395,000000	0,060000
394,000000	0,059600
393,000000	0,057900
392,000000	0,055800
391,000000	0,052900
390,000000	0,051500
389,000000	0,052400
388,000000	0,052400
387,000000	0,050000
386,000000	0,048600
385,000000	0,047200
384,000000	0,044100
383,000000	0,043500
382,000000	0,045300
381,000000	0,042900
380,000000	0,040300
379,000000	0,038900
378,000000	0,023500
377,000000	0,001500
376,000000	0,001400
375,000000	0,002100
374,000000	0,002200
373,000000	0,003500
372,000000	0,005500
371,000000	0,005300
370,000000	0,004400
369,000000	0,003500
368,000000	0,003200
367,000000	0,004800
366,000000	0,005800
365,000000	0,006200
364,000000	0,006000
363,000000	0,004700
362,000000	0,004000
361,000000	0,006100
360,000000	0,007100
359,000000	0,004900
358,000000	0,003400
357,000000	0,003500
356,000000	0,003100
355,000000	0,003300
354,000000	0,004000
353,000000	0,003500
352,000000	0,001900
351,000000	0,001900
350,000000	0,000900
